# Test deep-water wave - use negative H/L

# Solution by 20-term Fourier series

# Height/Length: 0.120,  85% of the maximum of H/L = 0.141
# Dimensionless Period T*sqrt(g/L):   2.34
# Current criterion: Euler,  Dimensionless value: 0.000


# Integral quantities - notation from Fenton (1988)
# (1) Quantity, (2) symbol, solution non-dimensionalised by (3) g & wavenumber

# Wave length                   (lambda)	  6.2832
# Wave height                        (H)	  0.7540
# Wave period                      (tau)	  5.8545
# Wave speed                         (c)	  1.0732
# Eulerian current                 (u1_)	 -0.0000
# Stokes current                   (u2_)	  0.0639
# Mean fluid speed in frame of wave (U_)	  1.0732
# Volume flux due to waves           (q)	  0.0623
# Bernoulli constant                 (r)	  0.5759

# Dimensionless coefficients in Fourier series
# Potential/Streamfn	Surface elevations
# j, B[j], & E[j], j=1..N

 1	  3.3244581e-01	  3.4256267e-01
 2	  1.0330361e-02	  7.5615717e-02
 3	  1.3243187e-03	  2.6701780e-02
 4	  2.1788178e-04	  1.1476170e-02
 5	  4.0867962e-05	  5.4909198e-03
 6	  8.3284234e-06	  2.8100315e-03
 7	  1.7959815e-06	  1.5057784e-03
 8	  4.0341479e-07	  8.3429786e-04
 9	  9.3444054e-08	  4.7412163e-04
10	  2.2170032e-08	  2.7485271e-04
11	  5.3620394e-09	  1.6191680e-04
12	  1.3174617e-09	  9.6669564e-05
13	  3.2799681e-10	  5.8386444e-05
14	  8.2583700e-11	  3.5646563e-05
15	  2.1001733e-11	  2.2018363e-05
16	  5.3925673e-12	  1.3819154e-05
17	  1.4004076e-12	  8.9177045e-06
18	  3.7072388e-13	  6.0806406e-06
19	  1.0216364e-13	  4.6122082e-06
20	  2.4587162e-14	  4.1587840e-06

